File: Data/XRD/Clay Peels/D08_1080.xy
5.02 12216.9
5.16 11815.3
5.3 11720.9
5.44 11195.1
5.58 11331.5
5.72 11386.8
5.86 11272.8
6 11230.0
6.14 11482.2
6.28 11655.6
6.42 11683.9
6.56 11880.9
6.7 12191.1
6.84 12758.1
6.98 13922.4
7.12 14941.4
7.26 13084.0
7.4 12639.1
7.54 12333.0
7.68 12276.2
7.82 12429.2
7.96 12517.4
8.1 12612.1
8.24 12733.7
8.38 13160.3
8.52 13537.9
8.66 13879.7
8.8 14493.1
8.94 15080.1
9.08 15894.2
9.22 16595.9
9.36 17356.5
9.5 18052.5
9.64 18757.2
9.78 20130.9
9.92 23235.4
10.06 29173.9
10.2 27829.4
10.34 15868.3
10.48 12867.6
10.62 11308.8
10.76 10430.5
10.9 10180.9
11.04 9597.0
11.18 9388.7
11.32 9070.5
11.46 9066.7
11.6 8873.9
11.74 8703.7
11.88 8529.0
12.02 8672.6
12.16 8586.5
12.3 8574.9
12.44 8369.9
12.58 8361.4
12.72 8411.2
12.86 8305.7
13 8455.2
13.14 8317.7
13.28 8470.8
13.42 8498.0
13.56 8727.5
13.7 9110.4
13.84 9925.3
13.98 11370.6
14.12 14738.4
14.26 20987.5
14.4 24120.5
14.54 13118.4
14.68 9911.6
14.82 8846.3
14.96 8241.7
15.1 7926.0
15.24 7662.9
15.38 7456.3
15.52 7394.7
15.66 7232.4
15.8 7146.6
15.94 7169.8
16.08 7012.0
16.22 6803.0
16.36 6692.4
16.5 6528.1
16.64 6568.3
16.78 6614.5
16.92 6413.1
17.06 6472.5
17.2 6310.3
17.34 6312.3
17.48 6189.6
17.62 6144.6
17.76 6264.7
17.9 6020.3
18.04 6144.1
18.18 6011.8
18.32 6111.0
18.46 6094.2
18.6 6148.8
18.74 6047.0
18.88 6084.6
19.02 6127.0
19.16 6194.4
19.3 6275.0
19.44 6243.6
19.58 6345.3
19.72 6455.6
19.86 6563.6
20 7077.6
20.14 7645.5
20.28 8826.3
20.42 11597.4
20.56 13627.1
20.7 9615.3
20.84 7824.9
20.98 7281.4
21.12 7105.6
21.26 7079.0
21.4 7502.1
21.54 8304.6
21.68 9333.7
21.82 7673.2
21.96 6183.0
22.1 5770.4
22.24 5396.7
22.38 5251.9
22.52 5052.7
22.66 4971.3
22.8 5109.1
22.94 5010.3
23.08 4851.5
23.22 4873.4
23.36 4628.3
23.5 4596.0
23.64 4581.7
23.78 4529.1
23.92 4554.1
24.06 4865.0
24.2 5112.3
24.34 4315.0
24.48 4310.4
24.62 4202.4
24.76 4206.4
24.9 4150.6
25.04 4212.7
25.18 4128.4
25.32 4217.4
25.46 4170.6
25.6 4164.4
25.74 4160.5
25.88 3989.0
26.02 3946.5
26.16 3987.6
26.3 3955.9
26.44 4074.4
26.58 4072.2
26.72 3929.8
26.86 3892.0
27 3899.9
27.14 4003.2
27.28 4057.4
27.42 3997.0
27.56 3995.7
27.7 4003.3
27.84 4093.6
27.98 4266.4
28.12 4402.3
28.26 4217.1
28.4 4443.9
28.54 4529.5
28.68 5111.1
28.82 6017.8
28.96 7919.5
29.1 10333.3
29.24 9295.8
29.38 6368.5
29.52 5248.5
29.66 4834.2
29.8 4600.7
29.94 4617.2
30.08 4494.1
30.22 4849.4
30.36 4965.0
30.5 5353.9
30.64 6179.8
30.78 8124.1
30.92 15537.7
31.06 17222.2
31.2 15247.6
31.34 10860.2
31.48 8632.2
31.62 7782.0
31.76 6986.0
31.9 6602.6
32.04 5911.2
32.18 5555.4
32.32 5498.8
32.46 5651.0
32.6 4514.9
32.74 4287.3
32.88 4071.9
33.02 3878.8
33.16 3824.6
33.3 3765.6
33.44 3625.9
33.58 3578.9
33.72 3552.7
33.86 3545.2
34 3495.5
34.14 3424.9
34.28 3387.2
34.42 3460.4
34.56 3454.1
34.7 3420.2
34.84 3319.2
34.98 3383.6
35.12 3346.8
35.26 3344.0
35.4 3332.6
35.54 3300.3
35.68 3301.7
35.82 3279.2
35.96 3305.5
36.1 3358.1
36.24 3580.2
36.38 3671.0
36.52 3862.4
36.66 3905.0
36.8 3830.8
36.94 3383.0
37.08 3272.0
37.22 3278.0
37.36 3238.4
37.5 3090.9
37.64 3110.2
37.78 3092.1
37.92 2949.7
38.06 2979.0
38.2 3040.5
38.34 3069.4
38.48 3536.6
38.62 3373.0
38.76 3004.3
38.9 2986.4
39.04 2953.0
39.18 2871.4
39.32 2853.0
39.46 2778.0
39.6 2815.7
39.74 2854.0
39.88 2788.4
40.02 2892.6
40.16 2915.8
40.3 2978.3
40.44 2966.2
40.58 2960.1
40.72 2998.1
40.86 2953.4
41 2851.4
41.14 2832.7
41.28 2880.4
41.42 2966.4
41.56 3005.6
41.7 3102.8
41.84 3408.0
41.98 3531.7
42.12 3093.4
42.26 2860.8
42.4 2665.1
42.54 2877.3
42.68 2801.0
42.82 2632.3
42.96 2552.1
43.1 2557.1
43.24 2550.6
43.38 2569.6
43.52 2604.3
43.66 2682.6
43.8 2643.4
43.94 2527.1
44.08 2637.5
44.22 2461.3
44.36 2517.2
44.5 2447.9
44.64 2434.0
44.78 2383.2
44.92 2420.6
44.98 2428.9