File: Data/XRD/Clay Peels/D08_1165b.xy
5.02 14059.0
5.16 14121.4
5.3 14158.0
5.44 14438.4
5.58 14471.6
5.72 14670.5
5.86 14763.2
6 15012.2
6.14 15462.0
6.28 16039.3
6.42 16122.7
6.56 16658.6
6.7 17594.8
6.84 18958.5
6.98 21284.5
7.12 23911.5
7.26 21201.8
7.4 19752.3
7.54 19195.2
7.68 19399.6
7.82 19719.3
7.96 20240.5
8.1 20671.1
8.24 21502.6
8.38 22194.4
8.52 22993.0
8.66 23716.3
8.8 24583.6
8.94 25501.9
9.08 26314.8
9.22 27022.8
9.36 27488.0
9.5 28313.4
9.64 29589.7
9.78 31455.8
9.92 35111.3
10.06 43740.7
10.2 55056.4
10.34 30511.5
10.48 22204.6
10.62 18858.3
10.76 16923.3
10.9 15777.5
11.04 14753.0
11.18 14238.2
11.32 13988.9
11.46 13403.4
11.6 13301.9
11.74 13021.7
11.88 13073.7
12.02 12968.5
12.16 12788.3
12.3 12748.3
12.44 12771.6
12.58 12963.2
12.72 13111.7
12.86 13276.1
13 13632.0
13.14 13650.4
13.28 14120.9
13.42 14587.8
13.56 15778.4
13.7 17261.9
13.84 19815.0
13.98 24711.3
14.12 33411.6
14.26 48301.4
14.4 60157.0
14.54 37134.7
14.68 22517.6
14.82 17309.3
14.96 14846.7
15.1 13085.5
15.24 12380.7
15.38 11849.1
15.52 11221.0
15.66 11052.2
15.8 10520.4
15.94 10435.0
16.08 10267.9
16.22 10098.3
16.36 9904.3
16.5 9810.7
16.64 9470.8
16.78 9597.4
16.92 9393.4
17.06 9366.7
17.2 9269.0
17.34 9110.6
17.48 9033.5
17.62 9052.7
17.76 8989.1
17.9 8719.4
18.04 8762.7
18.18 8725.4
18.32 8879.9
18.46 8776.3
18.6 8914.7
18.74 8880.6
18.88 8860.9
19.02 9118.1
19.16 8906.9
19.3 9108.6
19.44 9604.3
19.58 9791.0
19.72 10160.9
19.86 10608.4
20 11455.6
20.14 12605.7
20.28 15057.1
20.42 20240.7
20.56 27968.7
20.7 19808.2
20.84 15192.0
20.98 13294.2
21.12 12663.1
21.26 12888.1
21.4 13732.3
21.54 15035.2
21.68 16679.7
21.82 15385.8
21.96 11578.8
22.1 9860.7
22.24 9007.3
22.38 8509.5
22.52 7967.8
22.66 7983.7
22.8 7808.1
22.94 7710.3
23.08 7616.1
23.22 7241.3
23.36 6943.9
23.5 7000.4
23.64 6914.8
23.78 6752.5
23.92 6863.4
24.06 7283.7
24.2 9139.5
24.34 6654.1
24.48 6374.6
24.62 6341.6
24.76 6279.1
24.9 6306.7
25.04 6329.9
25.18 6126.7
25.32 6146.5
25.46 6347.7
25.6 6252.4
25.74 6262.7
25.88 6011.4
26.02 6304.5
26.16 6134.4
26.3 6239.8
26.44 6200.1
26.58 6231.2
26.72 6236.0
26.86 6059.1
27 6212.2
27.14 6119.3
27.28 6265.4
27.42 6355.4
27.56 6119.1
27.7 6361.1
27.84 6525.1
27.98 6726.5
28.12 7173.7
28.26 7404.7
28.4 8043.5
28.54 8882.1
28.68 10648.2
28.82 13717.0
28.96 19323.7
29.1 26884.8
29.24 28636.0
29.38 19509.5
29.52 13652.4
29.66 11403.2
29.8 10322.3
29.94 9457.0
30.08 9331.8
30.22 9566.8
30.36 9897.8
30.5 10579.2
30.64 12311.3
30.78 15225.6
30.92 28833.5
31.06 35468.0
31.2 32930.3
31.34 21737.0
31.48 17036.6
31.62 14338.8
31.76 13170.6
31.9 12700.9
32.04 11292.5
32.18 10782.3
32.32 10361.7
32.46 11161.2
32.6 8879.4
32.74 8308.2
32.88 7686.0
33.02 7191.1
33.16 6933.9
33.3 6706.2
33.44 6391.7
33.58 6307.1
33.72 6222.1
33.86 6044.6
34 5994.6
34.14 5808.8
34.28 5879.9
34.42 5877.4
34.56 5711.9
34.7 5862.8
34.84 5764.8
34.98 5887.4
35.12 5726.6
35.26 5603.2
35.4 5602.7
35.54 5750.9
35.68 5712.4
35.82 5847.7
35.96 5863.5
36.1 5925.4
36.24 6332.9
36.38 6713.2
36.52 6928.5
36.66 7277.2
36.8 7502.4
36.94 6459.2
37.08 5797.8
37.22 5707.3
37.36 5434.0
37.5 5300.5
37.64 5092.0
37.78 5114.9
37.92 4994.6
38.06 4955.3
38.2 4856.0
38.34 4789.5
38.48 4890.9
38.62 4840.6
38.76 4843.9
38.9 4742.0
39.04 4676.3
39.18 4654.4
39.32 4578.8
39.46 4560.7
39.6 4503.3
39.74 4543.2
39.88 4534.9
40.02 4597.0
40.16 4608.8
40.3 4743.8
40.44 4796.3
40.58 4717.2
40.72 4923.9
40.86 4854.9
41 4684.3
41.14 4699.5
41.28 4687.5
41.42 4840.9
41.56 4970.2
41.7 5274.4
41.84 6130.1
41.98 6260.4
42.12 5508.1
42.26 4625.3
42.4 4370.0
42.54 4525.0
42.68 4658.5
42.82 4253.6
42.96 4204.4
43.1 4082.9
43.24 4120.1
43.38 4120.4
43.52 4178.4
43.66 4083.7
43.8 4105.1
43.94 4037.3
44.08 4152.9
44.22 4017.2
44.36 3924.9
44.5 3919.1
44.64 3842.8
44.78 3769.3
44.92 3974.3
44.98 3816.1